Data from Transmission_12-39-43-438.txt Node
Date: Fri Mar 09 12:39:43 AEDT 2018
User: gauss
Spectrometer: FLMT02320
Trigger mode: 0
Integration Time (sec): 1.000000E-1
Scans to average: 1
Electric dark correction enabled: true
Nonlinearity correction enabled: false
Boxcar width: 0
XAxis mode: Wavelengths
Number of Pixels in Spectrum: 3648
>>>>>Begin Spectral Data<<<<<
349.019	52.2
349.238	52.2
349.456	52.2
349.674	-40.84
349.893	-138.35
350.111	272.9
350.33	-25.21
350.548	181.4
350.766	73.74
350.984	253.87
351.203	80
351.421	-359.32
351.639	-20.22
351.857	-17.55
352.076	33.48
352.294	-43.45
352.512	-355.14
352.73	51.51
352.948	24.44
353.166	33.86
353.385	26.12
353.603	26.3
353.821	20.66
354.039	34.98
354.257	20.38
354.475	0.74
354.693	21.04
354.911	14.38
355.129	21.28
355.347	25.05
355.565	-15.96
355.783	34.02
356.001	8.09
356.219	-8.65
356.437	22.22
356.655	7.65
356.873	34.57
357.091	10.75
357.308	32.76
357.526	12.56
357.744	21.75
357.962	6.75
358.18	12.47
358.398	11.23
358.615	14.51
358.833	38.07
359.051	26.71
359.269	24.45
359.486	18.85
359.704	16.35
359.922	7.02
360.139	3.91
360.357	12.81
360.575	1.27
360.792	9.33
361.01	12.47
361.228	17.76
361.445	8.36
361.663	9.18
361.88	20.96
362.098	-6.31
362.315	17.97
362.533	15.14
362.75	18.06
362.968	19.36
363.185	12.02
363.403	14.73
363.62	-4.41
363.838	8.22
364.055	1.64
364.273	22.01
364.49	4.5
364.707	31.7
364.925	12.23
365.142	20.72
365.359	24.77
365.577	8.1
365.794	7.48
366.011	22.35
366.229	3.68
366.446	19.96
366.663	15.91
366.88	4.75
367.098	5.16
367.315	7.51
367.532	11.01
367.749	11.38
367.966	22.6
368.183	-6.78
368.401	16.34
368.618	15.85
368.835	-3.64
369.052	19.74
369.269	17.16
369.486	-29.44
369.703	15.92
369.92	16.61
370.137	1.13
370.354	13.29
370.571	-2.35
370.788	19.53
371.005	14.03
371.222	3.35
371.439	12.35
371.656	7.64
371.873	5.98
372.09	10.81
372.306	7.23
372.523	2.6
372.74	4.77
372.957	9.62
373.174	-5.1
373.391	15.35
373.607	11.5
373.824	11.72
374.041	5.46
374.258	16.97
374.474	18.12
374.691	10.21
374.908	16.87
375.124	13.27
375.341	6.28
375.558	7.57
375.774	15.16
375.991	16.27
376.208	10.72
376.424	10.75
376.641	1.78
376.857	1.64
377.074	-0.57
377.29	-5.54
377.507	-0.8
377.723	6.93
377.94	14.09
378.156	6.3
378.373	13.06
378.589	15.92
378.806	4.95
379.022	8.05
379.239	4.63
379.455	12.28
379.671	-1.57
379.888	4.66
380.104	2.64
380.32	3.35
380.537	14.94
380.753	5.11
380.969	19.18
381.186	9.62
381.402	2.59
381.618	8.31
381.834	20.46
382.051	4.82
382.267	6.96
382.483	8.38
382.699	5.04
382.915	8.32
383.131	2.72
383.347	12.38
383.564	13.1
383.78	0.35
383.996	6.97
384.212	8.12
384.428	14.95
384.644	8.67
384.86	7.25
385.076	2.69
385.292	0.12
385.508	-2.13
385.724	10.78
385.94	12.43
386.156	5.18
386.372	6.29
386.588	10.36
386.804	15.12
387.019	10.5
387.235	3.13
387.451	-2.98
387.667	0.52
387.883	11.34
388.099	-10.99
388.314	6.52
388.53	10.69
388.746	7.47
388.962	4.19
389.177	8.23
389.393	0.62
389.609	1.86
389.825	15.96
390.04	2.22
390.256	13.07
390.472	12.19
390.687	11.2
390.903	5.19
391.118	3.87
391.334	0.44
391.55	10.74
391.765	8.92
391.981	12.22
392.196	7.86
392.412	1.34
392.627	0.69
392.843	4.21
393.058	8.31
393.274	-0.82
393.489	3
393.705	4.97
393.92	9
394.135	6.25
394.351	5.97
394.566	8.1
394.781	6.39
394.997	6.39
395.212	3.94
395.427	5.34
395.643	3.55
395.858	-4.01
396.073	5.27
396.289	4.54
396.504	13.07
396.719	5.31
396.934	8.19
397.149	4.74
397.365	-2.04
397.58	1.13
397.795	10.99
398.01	5.91
398.225	3.38
398.44	2.13
398.655	5.43
398.87	-0.95
399.085	6.8
399.301	5.03
399.516	5.6
399.731	5.77
399.946	-0.72
400.161	2.05
400.376	6.05
400.591	0.65
400.805	0.79
401.02	4.54
401.235	1.6
401.45	12.38
401.665	13.32
401.88	3.87
402.095	4.81
402.31	3.54
402.525	2.69
402.739	3.45
402.954	1.77
403.169	2.85
403.384	3.57
403.598	8.17
403.813	0.58
404.028	2.36
404.243	4.65
404.457	1.54
404.672	3.62
404.887	3.36
405.101	5.58
405.316	3.1
405.531	3.35
405.745	-0.33
405.96	3.72
406.174	3.27
406.389	4.12
406.603	2.6
406.818	1.15
407.033	6.69
407.247	2.79
407.462	4.23
407.676	4.14
407.89	3.66
408.105	6.02
408.319	6.24
408.534	5.03
408.748	7.12
408.963	2.16
409.177	4.7
409.391	3.7
409.606	4.31
409.82	2.33
410.034	2.77
410.249	-1.54
410.463	0.66
410.677	3.37
410.891	6.06
411.106	5.69
411.32	4
411.534	5.79
411.748	3.24
411.962	6.51
412.177	2.26
412.391	1.12
412.605	3.64
412.819	2.19
413.033	2.41
413.247	1.96
413.461	1.82
413.675	5.38
413.889	2.59
414.103	0.79
414.318	2.26
414.532	3.13
414.746	5.71
414.959	0.78
415.173	5.59
415.387	5.41
415.601	2.57
415.815	2.9
416.029	0.62
416.243	3.04
416.457	1.85
416.671	1.47
416.885	-2.95
417.098	0.55
417.312	1.64
417.526	4.31
417.74	0.66
417.954	-0.36
418.167	6.94
418.381	0.8
418.595	4.15
418.809	4.02
419.022	3.99
419.236	2.89
419.45	1.76
419.663	4.44
419.877	6.6
420.091	4.76
420.304	2.26
420.518	4.2
420.731	1.65
420.945	2.91
421.158	3.38
421.372	1.81
421.585	2.24
421.799	2.23
422.012	1.44
422.226	1.28
422.439	3.47
422.653	3.59
422.866	5.17
423.08	4.89
423.293	3.95
423.507	0.66
423.72	4.75
423.933	3.84
424.147	2.36
424.36	2.83
424.573	3.07
424.787	1.76
425	0.2
425.213	1.48
425.426	2.29
425.64	0.64
425.853	6.13
426.066	3.99
426.279	-0.39
426.492	1.84
426.706	2.7
426.919	1.99
427.132	1.87
427.345	1.4
427.558	1.26
427.771	2.29
427.984	1.5
428.197	1.75
428.41	2.82
428.623	4.21
428.836	-0.4
429.049	0.97
429.262	1.67
429.475	-0.93
429.688	0.55
429.901	2.3
430.114	0.83
430.327	-0.44
430.54	2.06
430.753	1.69
430.966	0.62
431.179	2.81
431.392	4.9
431.604	2.6
431.817	1.38
432.03	1.2
432.243	-0.24
432.455	-0.54
432.668	1.43
432.881	2
433.094	2.92
433.306	1.42
433.519	1.36
433.732	0.94
433.944	2.37
434.157	1.91
434.37	3.3
434.582	2.72
434.795	3.21
435.008	1.6
435.22	0.43
435.433	1.01
435.645	0.85
435.858	0.92
436.07	0.25
436.283	-0.38
436.495	2.16
436.708	3.36
436.92	2.34
437.133	1.94
437.345	0.49
437.557	0.48
437.77	0.38
437.982	-0.2
438.195	2.18
438.407	1.2
438.619	2.46
438.832	1.43
439.044	1.74
439.256	0.67
439.469	1.99
439.681	0.45
439.893	-0.59
440.105	2.23
440.317	0.09
440.53	1.45
440.742	1.37
440.954	0.88
441.166	1.14
441.378	1.95
441.591	1.13
441.803	0.39
442.015	0.09
442.227	3.57
442.439	1.78
442.651	1.62
442.863	-0.9
443.075	0.82
443.287	0.53
443.499	1.75
443.711	0.84
443.923	1.35
444.135	-0.14
444.347	0.68
444.559	2.55
444.771	1.43
444.983	1.94
445.194	2.57
445.406	0.62
445.618	0.5
445.83	1.69
446.042	1.34
446.254	2.48
446.465	1.73
446.677	2.2
446.889	0.52
447.101	0.87
447.312	-0.1
447.524	0.43
447.736	2.75
447.948	0.36
448.159	0.67
448.371	2.77
448.582	3.02
448.794	1.66
449.006	0.45
449.217	2.66
449.429	0.81
449.64	1.13
449.852	1.56
450.064	2.14
450.275	2.14
450.487	1.39
450.698	1.04
450.91	-0.53
451.121	2.13
451.332	1.01
451.544	0.9
451.755	0.05
451.967	0.53
452.178	0.72
452.389	1.89
452.601	1.99
452.812	1.69
453.024	0.24
453.235	2.41
453.446	1.05
453.657	1.89
453.869	1.31
454.08	0.63
454.291	1.58
454.502	2.62
454.714	0.94
454.925	1.06
455.136	3.22
455.347	1.16
455.558	0.86
455.769	2.63
455.981	0.55
456.192	-0.41
456.403	0.09
456.614	-0.42
456.825	1.71
457.036	1.22
457.247	-0.26
457.458	1.14
457.669	-0.06
457.88	2.66
458.091	1.64
458.302	2.37
458.513	0.81
458.724	1.53
458.935	1.82
459.146	0.58
459.356	0.66
459.567	0.81
459.778	1.44
459.989	1.15
460.2	1.34
460.411	2.22
460.621	0.92
460.832	2.43
461.043	1.16
461.254	0.83
461.464	1.37
461.675	1.6
461.886	1.01
462.097	-0.07
462.307	0.58
462.518	1.72
462.728	1.17
462.939	0.98
463.15	1.41
463.36	1.3
463.571	1.19
463.781	2.13
463.992	1.1
464.203	1.21
464.413	1.63
464.624	1.69
464.834	1.25
465.045	1.31
465.255	1.55
465.465	2.12
465.676	0.99
465.886	1.43
466.097	1.11
466.307	0.11
466.517	1.1
466.728	1.22
466.938	-0.14
467.149	1.28
467.359	1.16
467.569	1.6
467.779	-0.1
467.99	0.44
468.2	0.88
468.41	0.81
468.62	0.27
468.831	1.4
469.041	-0.28
469.251	0.79
469.461	0.8
469.671	1.06
469.881	0.28
470.092	1.61
470.302	1.23
470.512	0.55
470.722	1.11
470.932	0.25
471.142	0.82
471.352	1.72
471.562	0.52
471.772	0.64
471.982	1.06
472.192	0.67
472.402	0.89
472.612	0.66
472.822	1.08
473.032	0.86
473.242	1.5
473.451	0.67
473.661	1.57
473.871	0.76
474.081	0.82
474.291	0.74
474.501	1.19
474.71	1.84
474.92	0.17
475.13	0.94
475.34	0.69
475.549	1.13
475.759	0.62
475.969	0.52
476.178	0.43
476.388	1.07
476.598	0.83
476.807	0.82
477.017	0.8
477.227	0.87
477.436	0.04
477.646	0.97
477.855	1.25
478.065	0.92
478.274	0.41
478.484	0.45
478.694	0.43
478.903	0.77
479.112	1.17
479.322	0.68
479.531	0.94
479.741	0.78
479.95	0.79
480.16	0.63
480.369	1.37
480.578	0.1
480.788	0.44
480.997	0.59
481.206	0.68
481.416	0.88
481.625	0.92
481.834	0.69
482.044	1.15
482.253	0.59
482.462	0.86
482.671	0.64
482.88	0.79
483.09	0.82
483.299	0.62
483.508	0.65
483.717	0.89
483.926	0.71
484.135	0.99
484.344	0.79
484.554	1.05
484.763	0.57
484.972	0.48
485.181	1.11
485.39	0.81
485.599	0.99
485.808	0.57
486.017	0.95
486.226	0.59
486.435	0.16
486.644	0.85
486.852	0.72
487.061	0.93
487.27	0.35
487.479	1
487.688	0.66
487.897	0.44
488.106	0.47
488.314	0.45
488.523	0.67
488.732	0.53
488.941	0.67
489.15	0.48
489.358	0.45
489.567	1.2
489.776	0.61
489.984	0.59
490.193	0.87
490.402	0.65
490.61	0.77
490.819	0.83
491.028	0.93
491.236	0.92
491.445	0.73
491.653	0.74
491.862	1.15
492.07	0.43
492.279	0.79
492.487	0.67
492.696	0.96
492.904	0.63
493.113	0.84
493.321	0.64
493.53	0.63
493.738	0.61
493.947	1.18
494.155	0.84
494.363	0.69
494.572	1.24
494.78	1.08
494.988	0.3
495.197	1.04
495.405	0.88
495.613	1.06
495.822	0.87
496.03	0.93
496.238	0.99
496.446	0.61
496.655	0.71
496.863	0.94
497.071	0.92
497.279	0.82
497.487	0.74
497.695	0.97
497.903	1.05
498.112	1.4
498.32	0.73
498.528	0.6
498.736	1.2
498.944	0.63
499.152	0.8
499.36	1.31
499.568	1.27
499.776	0.94
499.984	1.01
500.192	1.08
500.4	1.12
500.608	1
500.816	0.85
501.023	1.02
501.231	1.21
501.439	1.35
501.647	1.2
501.855	1.09
502.063	1.19
502.27	1.51
502.478	1.68
502.686	1.21
502.894	1.32
503.101	1.81
503.309	1.24
503.517	1.5
503.725	1.58
503.932	1.3
504.14	1.3
504.348	1.53
504.555	1.4
504.763	1.51
504.97	1.33
505.178	1.48
505.386	1.74
505.593	1.6
505.801	1.54
506.008	1.44
506.216	1.72
506.423	1.76
506.631	1.58
506.838	1.63
507.046	2.15
507.253	1.82
507.461	2.08
507.668	1.73
507.875	2
508.083	1.62
508.29	1.91
508.497	2.25
508.705	1.93
508.912	1.81
509.119	1.78
509.327	2.13
509.534	2.25
509.741	2.18
509.948	2.11
510.156	2.68
510.363	2.18
510.57	2.56
510.777	2.75
510.984	2.5
511.192	2.7
511.399	2.66
511.606	2.25
511.813	2.81
512.02	2.75
512.227	2.91
512.434	2.78
512.641	3.01
512.848	2.84
513.055	3.02
513.262	3.23
513.469	3.27
513.676	2.8
513.883	3.13
514.09	3.44
514.297	3.21
514.504	3.29
514.711	3.65
514.918	3.42
515.124	3.42
515.331	3.88
515.538	3.77
515.745	3.27
515.952	3.55
516.159	3.66
516.365	4.07
516.572	3.87
516.779	3.8
516.985	4.19
517.192	3.85
517.399	3.96
517.606	4.49
517.812	4.19
518.019	4.11
518.226	4.13
518.432	4.29
518.639	4.71
518.845	4.57
519.052	4.73
519.258	4.79
519.465	4.88
519.672	4.47
519.878	5.06
520.085	4.75
520.291	4.95
520.497	5.1
520.704	5.05
520.91	5.12
521.117	5.51
521.323	5.54
521.53	5.49
521.736	5.43
521.942	5.44
522.149	5.46
522.355	5.79
522.561	5.55
522.768	5.82
522.974	6.19
523.18	5.69
523.386	5.94
523.593	6.22
523.799	6.37
524.005	6.33
524.211	6.16
524.417	6.02
524.624	6.3
524.83	6.27
525.036	6.63
525.242	6.52
525.448	6.63
525.654	6.49
525.86	6.63
526.066	6.37
526.272	6.92
526.478	6.67
526.684	6.65
526.89	6.67
527.096	7.04
527.302	7.34
527.508	7.28
527.714	7.26
527.92	7.3
528.126	7.13
528.332	7.35
528.538	7.02
528.744	7.38
528.949	7.53
529.155	7.68
529.361	7.49
529.567	7.37
529.773	7.4
529.978	7.75
530.184	7.57
530.39	7.9
530.596	7.79
530.801	7.59
531.007	7.78
531.213	7.74
531.418	8.23
531.624	7.92
531.83	7.99
532.035	8.18
532.241	7.92
532.446	7.96
532.652	8.05
532.857	8.03
533.063	8.18
533.268	8
533.474	8.18
533.679	8.27
533.885	8.17
534.09	8.21
534.296	8.34
534.501	8.43
534.707	8.64
534.912	8.45
535.117	8.51
535.323	8.63
535.528	8.16
535.733	8.63
535.939	8.39
536.144	8.59
536.349	8.47
536.555	8.92
536.76	8.62
536.965	8.77
537.17	8.59
537.376	8.64
537.581	8.82
537.786	8.78
537.991	8.81
538.196	8.86
538.401	9.11
538.607	8.8
538.812	9
539.017	8.77
539.222	8.86
539.427	9.02
539.632	8.87
539.837	8.97
540.042	9.15
540.247	9.22
540.452	8.8
540.657	8.94
540.862	8.94
541.067	9
541.272	9.09
541.477	9.2
541.682	8.9
541.886	9.26
542.091	8.98
542.296	8.96
542.501	8.86
542.706	8.99
542.911	9.06
543.115	9.15
543.32	9.43
543.525	9.06
543.73	8.86
543.934	8.98
544.139	9.24
544.344	9.16
544.548	9.25
544.753	9.13
544.958	9.41
545.162	9.25
545.367	9.14
545.572	9.11
545.776	9.04
545.981	9.27
546.185	9.1
546.39	9.16
546.594	9.26
546.799	9.36
547.003	9.66
547.208	9.39
547.412	9.64
547.617	9.46
547.821	9.48
548.026	9.52
548.23	9.14
548.434	9.86
548.639	9.42
548.843	9.42
549.047	9.33
549.252	9.51
549.456	9.83
549.66	9.76
549.865	9.78
550.069	9.76
550.273	9.84
550.477	9.82
550.682	9.84
550.886	9.54
551.09	9.83
551.294	9.88
551.498	10.22
551.702	9.73
551.907	10.02
552.111	9.84
552.315	9.83
552.519	10.13
552.723	10.08
552.927	9.84
553.131	10.08
553.335	10.38
553.539	10.03
553.743	10.23
553.947	10.19
554.151	10.32
554.355	10.13
554.559	10.1
554.763	10.26
554.966	10.37
555.17	10.02
555.374	10.2
555.578	10.42
555.782	10.15
555.986	10.03
556.19	10.36
556.393	10.15
556.597	10.06
556.801	10.28
557.005	9.88
557.208	10.48
557.412	10.48
557.616	10.32
557.819	10.08
558.023	10.15
558.227	10.07
558.43	10.15
558.634	9.84
558.838	10.4
559.041	10.49
559.245	10.09
559.448	10.4
559.652	10.11
559.855	10.14
560.059	10.18
560.262	10.16
560.466	10.38
560.669	10.23
560.873	10.15
561.076	10.24
561.28	10.34
561.483	10.01
561.686	9.95
561.89	10.34
562.093	10.33
562.296	10.23
562.5	10.02
562.703	10.22
562.906	9.75
563.11	10.18
563.313	9.92
563.516	10.05
563.719	9.92
563.922	9.85
564.126	10.07
564.329	9.92
564.532	9.94
564.735	9.87
564.938	9.81
565.141	10.04
565.345	9.38
565.548	9.77
565.751	9.66
565.954	9.79
566.157	9.62
566.36	9.71
566.563	9.65
566.766	9.28
566.969	9.36
567.172	9.41
567.375	9.53
567.578	9.47
567.781	9.27
567.984	9.34
568.186	9.23
568.389	9.32
568.592	9.22
568.795	9.11
568.998	9.09
569.201	9.08
569.403	8.9
569.606	8.89
569.809	8.95
570.012	9.21
570.214	8.83
570.417	8.61
570.62	8.83
570.823	8.61
571.025	8.68
571.228	8.38
571.431	8.75
571.633	8.55
571.836	8.35
572.038	8.64
572.241	8.38
572.443	8.37
572.646	8.54
572.849	8.6
573.051	8.41
573.254	8.54
573.456	7.88
573.659	8.28
573.861	8.25
574.063	8
574.266	7.85
574.468	8.01
574.671	8.28
574.873	8.26
575.075	8.24
575.278	7.91
575.48	7.88
575.682	7.88
575.885	8.06
576.087	7.9
576.289	7.9
576.492	8.02
576.694	7.82
576.896	7.72
577.098	7.55
577.3	7.8
577.503	7.77
577.705	7.77
577.907	7.79
578.109	7.72
578.311	7.54
578.513	7.8
578.715	7.23
578.917	7.65
579.119	7.62
579.321	7.61
579.523	7.41
579.725	7.3
579.927	7.56
580.129	7.4
580.331	7.26
580.533	7.6
580.735	7.23
580.937	7.09
581.139	7.66
581.341	7.14
581.543	7.16
581.745	7.43
581.947	7.23
582.148	7.19
582.35	7.01
582.552	7.16
582.754	7.13
582.955	7.15
583.157	6.97
583.359	7.06
583.561	7.12
583.762	7
583.964	6.84
584.166	7.12
584.367	6.71
584.569	6.85
584.771	7.07
584.972	6.69
585.174	6.83
585.375	6.77
585.577	6.94
585.778	6.81
585.98	6.67
586.181	6.86
586.383	6.91
586.584	6.77
586.786	6.65
586.987	6.67
587.189	6.61
587.39	6.5
587.592	6.67
587.793	6.46
587.994	6.65
588.196	6.86
588.397	6.66
588.598	6.54
588.8	6.66
589.001	6.56
589.202	6.64
589.403	6.46
589.605	6.52
589.806	6.68
590.007	6.31
590.208	6.42
590.41	6.41
590.611	6.58
590.812	6.67
591.013	6.36
591.214	6.62
591.415	6.24
591.616	6.42
591.817	6.38
592.018	6.46
592.219	6.39
592.421	6.38
592.622	6.4
592.823	6.41
593.023	6.13
593.224	6.32
593.425	6.2
593.626	6.22
593.827	6.46
594.028	6.45
594.229	6.43
594.43	6.52
594.631	6.31
594.832	6.1
595.032	6.45
595.233	6.41
595.434	6.04
595.635	6.17
595.836	6.4
596.036	6.37
596.237	6.3
596.438	6.2
596.638	6.47
596.839	6.49
597.04	6.12
597.24	6.24
597.441	6.52
597.642	6.43
597.842	6.51
598.043	6.21
598.243	6.32
598.444	6.49
598.645	6.18
598.845	6.3
599.046	6.43
599.246	6.5
599.447	6.51
599.647	6.49
599.847	6.67
600.048	6.5
600.248	6.37
600.449	6.37
600.649	6.44
600.849	6.38
601.05	6.23
601.25	6.22
601.451	6.31
601.651	6.26
601.851	6.33
602.051	6.16
602.252	6.03
602.452	6.3
602.652	6.23
602.852	6.43
603.053	6.27
603.253	5.98
603.453	6.4
603.653	6.29
603.853	6.08
604.053	6.2
604.253	6.18
604.453	6.31
604.654	6.1
604.854	6.3
605.054	6.15
605.254	6.2
605.454	6.43
605.654	6.2
605.854	6.36
606.054	6.04
606.254	5.89
606.454	6.13
606.653	6.02
606.853	6.09
607.053	6.12
607.253	5.88
607.453	6.25
607.653	6.01
607.853	5.89
608.052	5.96
608.252	5.68
608.452	5.89
608.652	5.88
608.851	5.98
609.051	5.94
609.251	5.93
609.451	5.89
609.65	5.84
609.85	5.64
610.05	5.9
610.249	5.59
610.449	5.6
610.648	5.69
610.848	5.67
611.048	5.62
611.247	5.78
611.447	5.71
611.646	5.49
611.846	5.7
612.045	5.65
612.245	5.52
612.444	5.67
612.644	5.34
612.843	5.28
613.042	5.38
613.242	5.26
613.441	5.45
613.641	5.45
613.84	5.42
614.039	5.41
614.239	5.33
614.438	5.49
614.637	5.34
614.837	5.15
615.036	5.28
615.235	5.25
615.434	5.25
615.633	5.16
615.833	4.92
616.032	5.3
616.231	5.18
616.43	5.04
616.629	5.1
616.828	5.11
617.027	5.27
617.227	4.99
617.426	5.08
617.625	5.08
617.824	4.95
618.023	5.08
618.222	5.06
618.421	4.93
618.62	4.96
618.819	4.74
619.018	4.97
619.217	4.89
619.415	4.84
619.614	5.03
619.813	4.81
620.012	5.03
620.211	4.95
620.41	4.63
620.609	4.83
620.807	4.59
621.006	5.18
621.205	4.81
621.404	5.04
621.602	4.96
621.801	4.69
622	4.65
622.199	4.65
622.397	4.58
622.596	4.74
622.795	4.89
622.993	4.79
623.192	4.72
623.39	4.75
623.589	4.71
623.788	4.64
623.986	4.79
624.185	4.51
624.383	4.57
624.582	4.81
624.78	4.65
624.979	4.61
625.177	4.48
625.376	4.77
625.574	4.69
625.772	4.65
625.971	4.48
626.169	4.54
626.367	4.71
626.566	4.75
626.764	4.65
626.962	4.88
627.161	4.55
627.359	4.67
627.557	4.7
627.756	4.55
627.954	4.66
628.152	4.41
628.35	4.88
628.548	4.65
628.747	4.7
628.945	4.59
629.143	4.68
629.341	4.7
629.539	4.54
629.737	4.68
629.935	4.46
630.133	4.51
630.331	4.73
630.529	4.85
630.727	4.47
630.925	4.45
631.123	4.64
631.321	4.82
631.519	4.61
631.717	4.62
631.915	4.68
632.113	4.62
632.311	4.46
632.509	4.8
632.707	4.64
632.905	4.51
633.102	4.62
633.3	4.7
633.498	4.53
633.696	4.46
633.893	4.41
634.091	4.62
634.289	4.86
634.487	4.57
634.684	4.26
634.882	4.59
635.08	4.46
635.277	4.23
635.475	4.42
635.673	4.3
635.87	4.24
636.068	4.45
636.265	4.42
636.463	4.06
636.66	4.33
636.858	4.21
637.056	4.03
637.253	4.08
637.45	4.26
637.648	3.79
637.845	4.19
638.043	3.95
638.24	4.25
638.438	4.14
638.635	4.17
638.832	3.97
639.03	3.87
639.227	4.05
639.424	3.8
639.622	3.9
639.819	3.88
640.016	3.69
640.213	3.74
640.411	3.82
640.608	3.85
640.805	3.86
641.002	3.62
641.2	3.73
641.397	3.54
641.594	3.38
641.791	3.55
641.988	3.33
642.185	3.53
642.382	3.33
642.579	3.73
642.776	3.41
642.973	3.61
643.17	3.16
643.367	3.17
643.564	3.26
643.761	3.16
643.958	3.22
644.155	3.35
644.352	2.98
644.549	3.12
644.746	3.02
644.943	2.74
645.14	3.01
645.337	3.14
645.533	2.78
645.73	2.99
645.927	2.66
646.124	2.75
646.321	2.72
646.517	2.88
646.714	2.56
646.911	2.7
647.107	2.75
647.304	2.58
647.501	2.55
647.697	2.67
647.894	2.47
648.091	2.46
648.287	2.46
648.484	2.68
648.68	2.65
648.877	2.53
649.074	2.39
649.27	2.42
649.467	2.57
649.663	2.51
649.86	2.33
650.056	2.17
650.252	2.53
650.449	2.36
650.645	2.29
650.842	2.27
651.038	2.21
651.234	2.37
651.431	2.05
651.627	2.09
651.823	1.88
652.02	2.19
652.216	2.28
652.412	2.32
652.609	2.27
652.805	2.18
653.001	2.08
653.197	2.3
653.393	2.05
653.59	2.29
653.786	2.05
653.982	2.24
654.178	2.26
654.374	2.04
654.57	2.21
654.766	2
654.962	2.13
655.158	2.21
655.355	2.01
655.551	1.98
655.747	2.18
655.943	2
656.138	1.96
656.334	2.06
656.53	1.99
656.726	2.04
656.922	2.12
657.118	1.85
657.314	1.86
657.51	1.92
657.706	1.69
657.901	1.76
658.097	1.81
658.293	1.96
658.489	1.76
658.685	1.82
658.88	1.81
659.076	1.74
659.272	1.74
659.468	1.67
659.663	1.69
659.859	1.47
660.055	1.8
660.25	1.76
660.446	1.57
660.641	1.71
660.837	1.58
661.033	1.33
661.228	1.45
661.424	1.57
661.619	1.49
661.815	1.19
662.01	1.67
662.206	1.58
662.401	1.4
662.597	1.45
662.792	1.54
662.987	1.31
663.183	1.29
663.378	1.34
663.573	1.7
663.769	1.25
663.964	1.39
664.159	1.25
664.355	1.24
664.55	1.27
664.745	1.14
664.941	1.29
665.136	1.15
665.331	1.41
665.526	1.23
665.721	1.08
665.917	1.37
666.112	1.1
666.307	1.01
666.502	1.01
666.697	1.01
666.892	1.07
667.087	1.28
667.282	1.15
667.477	0.97
667.672	1.11
667.867	1.05
668.062	0.92
668.257	1.02
668.452	0.88
668.647	1.04
668.842	1.12
669.037	1.12
669.232	0.92
669.427	1.02
669.622	0.89
669.817	0.87
670.012	1.04
670.206	1.06
670.401	0.88
670.596	0.92
670.791	0.91
670.985	0.86
671.18	0.85
671.375	0.83
671.57	0.8
671.764	0.94
671.959	0.92
672.154	0.95
672.348	0.97
672.543	0.9
672.738	0.81
672.932	0.67
673.127	0.93
673.321	0.94
673.516	0.91
673.71	0.79
673.905	0.8
674.099	0.89
674.294	0.91
674.488	0.91
674.683	0.84
674.877	0.89
675.072	0.94
675.266	0.84
675.46	0.8
675.655	0.81
675.849	0.72
676.044	0.75
676.238	0.79
676.432	0.82
676.626	1.01
676.821	0.74
677.015	0.88
677.209	0.68
677.403	0.72
677.598	0.71
677.792	0.99
677.986	0.68
678.18	0.75
678.374	0.77
678.568	0.94
678.763	0.76
678.957	0.8
679.151	0.95
679.345	0.94
679.539	0.79
679.733	0.78
679.927	0.98
680.121	1.05
680.315	1
680.509	0.94
680.703	1.02
680.897	1.06
681.091	0.89
681.285	0.8
681.479	1.02
681.672	0.91
681.866	0.96
682.06	1.08
682.254	0.88
682.448	0.92
682.642	1.11
682.835	0.94
683.029	1.11
683.223	1.13
683.417	0.99
683.61	1.12
683.804	0.93
683.998	0.97
684.191	1.41
684.385	1.14
684.579	1.17
684.772	1.28
684.966	1.4
685.159	1.37
685.353	1.32
685.547	1.38
685.74	1.4
685.934	1.4
686.127	1.53
686.321	1.56
686.514	1.47
686.708	1.57
686.901	1.59
687.094	1.8
687.288	1.77
687.481	1.88
687.675	1.93
687.868	2
688.061	2.07
688.255	2.16
688.448	2.11
688.641	2.21
688.834	2.42
689.028	2.23
689.221	2.54
689.414	2.53
689.607	2.44
689.801	2.92
689.994	2.89
690.187	2.85
690.38	2.95
690.573	3.2
690.766	3.38
690.959	3.48
691.153	3.79
691.346	3.56
691.539	3.88
691.732	3.82
691.925	4.11
692.118	4
692.311	4.33
692.504	4.55
692.697	4.71
692.89	4.8
693.083	5
693.275	5.15
693.468	5.32
693.661	5.72
693.854	5.71
694.047	6.17
694.24	6.08
694.433	6.31
694.625	6.56
694.818	6.7
695.011	7.03
695.204	7.08
695.396	7.4
695.589	7.54
695.782	8.17
695.975	7.78
696.167	8.37
696.36	8.25
696.552	8.66
696.745	8.81
696.938	9.55
697.13	9.22
697.323	9.73
697.515	9.74
697.708	10.29
697.9	10.25
698.093	10.61
698.285	10.4
698.478	11.12
698.67	11.55
698.863	11.71
699.055	12.1
699.248	12.38
699.44	12.57
699.632	12.98
699.825	12.99
700.017	13.05
700.209	13.35
700.402	13.34
700.594	14.16
700.786	14.47
700.979	14.67
701.171	14.58
701.363	15.23
701.555	15.11
701.748	15.43
701.94	15.73
702.132	16.35
702.324	16.58
702.516	16.62
702.708	17.07
702.9	17.26
703.092	17.43
703.285	17.83
703.477	18.06
703.669	18.1
703.861	18.51
704.053	18.7
704.245	18.69
704.437	19.24
704.629	19.52
704.821	19.85
705.012	19.99
705.204	20.16
705.396	20.72
705.588	20.66
705.78	20.9
705.972	21.41
706.164	21.83
706.355	21.93
706.547	21.81
706.739	22.46
706.931	22.84
707.123	22.33
707.314	23.02
707.506	23.06
707.698	23.53
707.889	24.01
708.081	24.16
708.273	24.5
708.464	24.38
708.656	24.38
708.848	24.8
709.039	24.99
709.231	25.69
709.422	25.6
709.614	25.73
709.805	26.46
709.997	25.87
710.188	26.4
710.38	26.92
710.571	26.88
710.763	27.33
710.954	27.2
711.146	28.06
711.337	28.15
711.528	27.7
711.72	28.01
711.911	28.52
712.102	28.6
712.294	29.19
712.485	29.26
712.676	29.18
712.867	29.74
713.059	30.24
713.25	30.51
713.441	30.27
713.632	30.6
713.824	30.74
714.015	31.05
714.206	31.36
714.397	31.24
714.588	32.06
714.779	31.72
714.97	32.45
715.161	32.02
715.352	32.35
715.543	33.21
715.734	32.94
715.925	33.08
716.116	33.37
716.307	34.03
716.498	33.37
716.689	34.1
716.88	34.26
717.071	34.77
717.262	34.5
717.453	34.76
717.644	35.4
717.835	35.03
718.025	34.87
718.216	34.99
718.407	36.02
718.598	35.99
718.788	36.57
718.979	36.52
719.17	36.72
719.361	36.47
719.551	37.03
719.742	37.07
719.933	36.81
720.123	37.93
720.314	37.7
720.505	38.2
720.695	37.65
720.886	38.33
721.076	38.02
721.267	38.7
721.457	38.82
721.648	39.03
721.838	38.87
722.029	39.93
722.219	39.72
722.41	39.43
722.6	40.38
722.791	40.08
722.981	40.52
723.171	40.53
723.362	40.85
723.552	41.26
723.742	41.2
723.933	41.34
724.123	41.23
724.313	41.71
724.504	41.98
724.694	42.85
724.884	42.01
725.074	42.97
725.265	42.93
725.455	43.58
725.645	43.58
725.835	43.24
726.025	43.48
726.215	43.72
726.405	44.21
726.596	44.34
726.786	44
726.976	44.76
727.166	45.15
727.356	45.37
727.546	45.61
727.736	45.42
727.926	45.32
728.116	46.11
728.306	46.65
728.496	46.49
728.685	47.13
728.875	46.04
729.065	47.13
729.255	47.56
729.445	47.39
729.635	48
729.825	47.74
730.014	48.03
730.204	48.14
730.394	48.67
730.584	48.49
730.773	48.95
730.963	49.33
731.153	49.15
731.342	50.1
731.532	49.02
731.722	49.15
731.911	49.95
732.101	49.91
732.291	49.87
732.48	49.89
732.67	50.47
732.859	50.33
733.049	51.38
733.238	51.43
733.428	51.02
733.617	51.24
733.807	51.4
733.996	51.6
734.186	51.79
734.375	51.74
734.565	51.86
734.754	52.42
734.943	52.17
735.133	52.63
735.322	52.44
735.511	53.09
735.701	53.32
735.89	53.33
736.079	53.28
736.269	54.04
736.458	53.01
736.647	53.3
736.836	53.77
737.025	53.51
737.215	54.43
737.404	53.95
737.593	54.5
737.782	54.45
737.971	54.33
738.16	54.4
738.349	54.24
738.538	54.32
738.727	55.21
738.916	54.95
739.105	55.56
739.294	54.73
739.483	56.34
739.672	55.75
739.861	54.7
740.05	55.73
740.239	55.58
740.428	55.22
740.617	55.31
740.806	55.51
740.995	55.87
741.183	56.33
741.372	56.27
741.561	56.56
741.75	55.62
741.939	56.43
742.127	56.48
742.316	57.32
742.505	56.3
742.694	56.8
742.882	56.82
743.071	56.66
743.26	56.72
743.448	56.88
743.637	56.2
743.825	57.11
744.014	57.09
744.203	56.5
744.391	56.63
744.58	57.61
744.768	56.43
744.957	57.22
745.145	57.5
745.334	57.66
745.522	57.37
745.711	57.5
745.899	57.3
746.087	57.72
746.276	56.92
746.464	57.25
746.652	57.09
746.841	57.19
747.029	57.58
747.217	57.36
747.406	58.45
747.594	57.76
747.782	57.42
747.971	58.23
748.159	57.53
748.347	57.9
748.535	58.16
748.723	57.52
748.911	57.49
749.1	57.71
749.288	57.84
749.476	57.5
749.664	57.84
749.852	57.68
750.04	58.21
750.228	57.7
750.416	57.33
750.604	57
750.792	58.48
750.98	57.75
751.168	57.94
751.356	58.05
751.544	57.86
751.732	57.26
751.92	57.44
752.108	57.94
752.296	57.14
752.483	57.28
752.671	57.52
752.859	57.74
753.047	57.78
753.235	57.76
753.422	57.24
753.61	57.55
753.798	57.91
753.986	57.48
754.173	57.56
754.361	56.96
754.549	57.31
754.736	56.82
754.924	57.65
755.112	57.34
755.299	57.43
755.487	56.69
755.674	57.15
755.862	57.58
756.049	56.97
756.237	56.81
756.424	56.96
756.612	56.9
756.799	57.07
756.987	56.75
757.174	55.88
757.362	56.68
757.549	57.04
757.736	56.86
757.924	56.78
758.111	57.16
758.299	57.04
758.486	56.81
758.673	56.41
758.86	57.31
759.048	56.66
759.235	56.77
759.422	57.17
759.609	56.27
759.797	56.68
759.984	56.23
760.171	56.6
760.358	55.81
760.545	55.92
760.732	56.95
760.92	55.96
761.107	55.69
761.294	56.41
761.481	55.25
761.668	56.17
761.855	56.63
762.042	56.11
762.229	55.97
762.416	55.8
762.603	55.69
762.79	56.29
762.977	55.58
763.164	55.84
763.35	55.14
763.537	55.81
763.724	55.57
763.911	55.66
764.098	55.98
764.285	54.69
764.471	54.87
764.658	54.54
764.845	55.61
765.032	54.43
765.218	55.12
765.405	54.87
765.592	54.66
765.779	54.91
765.965	54.89
766.152	54.49
766.339	54.43
766.525	54.62
766.712	55.25
766.898	54.72
767.085	54.37
767.271	54.49
767.458	54.16
767.644	54.45
767.831	53.52
768.017	54.01
768.204	53.87
768.39	53.38
768.577	53.82
768.763	53.24
768.95	54.68
769.136	54.14
769.322	53.88
769.509	53.7
769.695	54.03
769.881	53.37
770.068	52.79
770.254	53.53
770.44	53.38
770.626	53.99
770.813	53.1
770.999	52.35
771.185	52.89
771.371	52.76
771.557	53.65
771.744	52.94
771.93	52.69
772.116	52.4
772.302	53.21
772.488	52.15
772.674	53.08
772.86	52.29
773.046	52.95
773.232	51.87
773.418	52.87
773.604	52.46
773.79	51.94
773.976	51.64
774.162	51.4
774.348	51.89
774.534	51.33
774.72	51.48
774.906	51.79
775.091	51.92
775.277	51.78
775.463	50.78
775.649	51.29
775.835	51.35
776.02	51.63
776.206	50.62
776.392	51.07
776.578	50.87
776.763	50.71
776.949	50.92
777.135	50.87
777.32	50.78
777.506	50.77
777.692	50.41
777.877	50.78
778.063	50.02
778.248	50.36
778.434	50.65
778.62	50.1
778.805	50.4
778.991	49.72
779.176	49.74
779.361	49.53
779.547	49.87
779.732	50.35
779.918	50.02
780.103	49.98
780.289	49.38
780.474	49.87
780.659	49.92
780.845	50.23
781.03	49.75
781.215	49.05
781.401	49.67
781.586	49.62
781.771	49.61
781.956	49.49
782.142	50.34
782.327	49.55
782.512	49.72
782.697	49.82
782.882	49.65
783.067	49.78
783.253	49.33
783.438	49.4
783.623	49.48
783.808	49.22
783.993	49.61
784.178	49.99
784.363	48.93
784.548	49.74
784.733	49.64
784.918	49.92
785.103	49.52
785.288	49.65
785.473	49.23
785.658	48.97
785.843	49.13
786.027	49.61
786.212	49.51
786.397	49.07
786.582	49.22
786.767	49.79
786.952	49.4
787.136	49.88
787.321	49.09
787.506	49.06
787.691	49.82
787.875	50.14
788.06	48.89
788.245	49.78
788.429	49.79
788.614	49.37
788.798	49.59
788.983	49.12
789.168	48.93
789.352	49.02
789.537	49.65
789.721	49.31
789.906	49.46
790.09	50.04
790.275	49.64
790.459	49.73
790.644	49.74
790.828	49.08
791.013	48.26
791.197	49.27
791.381	49.03
791.566	49
791.75	48.78
791.935	49.14
792.119	49.11
792.303	49.81
792.487	49.66
792.672	49.88
792.856	50.09
793.04	49.56
793.224	49.03
793.409	49.35
793.593	48.84
793.777	49.21
793.961	49.32
794.145	49.42
794.329	48.47
794.514	48.54
794.698	50.04
794.882	49.84
795.066	49.54
795.25	49.43
795.434	49.82
795.618	49.26
795.802	49.47
795.986	49.43
796.17	48.6
796.354	49.21
796.538	48.92
796.722	50.1
796.905	49.31
797.089	49.05
797.273	49.37
797.457	49.11
797.641	49.61
797.825	49.84
798.008	49.64
798.192	49.07
798.376	49.34
798.56	48.61
798.743	49.07
798.927	48.74
799.111	49.46
799.295	49.28
799.478	48.79
799.662	49.45
799.845	49.43
800.029	49.12
800.213	49.05
800.396	49.29
800.58	49.19
800.763	50
800.947	49.7
801.13	49.78
801.314	49.78
801.497	48.66
801.681	49.55
801.864	50.01
802.048	48.81
802.231	49.86
802.414	49.2
802.598	49.82
802.781	49.67
802.965	49.48
803.148	49.3
803.331	49.51
803.514	49.3
803.698	49.13
803.881	49.67
804.064	49.31
804.247	49.55
804.431	48.91
804.614	48.83
804.797	49.66
804.98	49.14
805.163	49.61
805.346	49.23
805.53	49.22
805.713	49.63
805.896	48.53
806.079	49.29
806.262	48.27
806.445	49.64
806.628	48.76
806.811	49.03
806.994	49.01
807.177	49.71
807.36	48.72
807.543	49.14
807.725	49.21
807.908	48.83
808.091	49.36
808.274	49.28
808.457	48.52
808.64	48.83
808.823	49.97
809.005	49.28
809.188	48.81
809.371	48.15
809.554	48.93
809.736	49.18
809.919	49.29
810.102	49.5
810.284	48.79
810.467	48.61
810.65	48.66
810.832	48.86
811.015	49.27
811.197	49.5
811.38	48.84
811.563	49.14
811.745	48.62
811.928	48.5
812.11	48.78
812.293	48.87
812.475	49.14
812.658	49.15
812.84	49
813.022	48.94
813.205	48.65
813.387	48.58
813.57	49.34
813.752	48.84
813.934	49
814.117	49.26
814.299	48.66
814.481	49.33
814.663	49.54
814.846	48.72
815.028	49.55
815.21	49.24
815.392	49.2
815.575	49.09
815.757	49.05
815.939	48.85
816.121	49.65
816.303	49.28
816.485	48.98
816.667	49.56
816.849	49.13
817.031	49.21
817.213	48.46
817.395	49.3
817.577	48.76
817.759	49.51
817.941	48.41
818.123	48.88
818.305	49.28
818.487	48.56
818.669	49.37
818.851	49.26
819.033	48.45
819.215	48.93
819.397	48.91
819.578	49.5
819.76	49.13
819.942	48.54
820.124	48.84
820.305	49.63
820.487	49.02
820.669	48.45
820.851	49.07
821.032	48.59
821.214	49.36
821.396	49.43
821.577	49.12
821.759	48.36
821.94	49.65
822.122	48.78
822.304	49.39
822.485	48.69
822.667	49.79
822.848	49.42
823.03	49.1
823.211	48.32
823.393	49.1
823.574	48.18
823.755	48.38
823.937	48.53
824.118	48.84
824.3	48.42
824.481	48.29
824.662	47.97
824.844	48.49
825.025	49.29
825.206	49.17
825.388	49.51
825.569	49.33
825.75	49.19
825.931	50.26
826.112	48.61
826.294	48.89
826.475	49.06
826.656	49.84
826.837	49.19
827.018	48.85
827.199	48.6
827.38	49.82
827.562	48.54
827.743	48.83
827.924	48.02
828.105	48.58
828.286	49.34
828.467	49.76
828.648	48.68
828.829	48.66
829.01	49.01
829.19	49.69
829.371	48.91
829.552	48.83
829.733	49.01
829.914	48.6
830.095	49.11
830.276	49.45
830.456	49.31
830.637	48.97
830.818	49.18
830.999	48.87
831.179	49.1
831.36	49.28
831.541	48.89
831.722	49.01
831.902	48.95
832.083	48.53
832.264	49.56
832.444	48.44
832.625	49.53
832.805	48.95
832.986	48.58
833.166	49.51
833.347	48.82
833.528	48.19
833.708	49.11
833.889	48.76
834.069	49.58
834.249	49.11
834.43	49.06
834.61	48.38
834.791	48.55
834.971	49.55
835.151	48.75
835.332	49.37
835.512	49.08
835.692	48.72
835.873	48.49
836.053	49.54
836.233	48.77
836.414	48.71
836.594	49.55
836.774	48.41
836.954	48.67
837.134	49.49
837.314	48.72
837.495	49.34
837.675	49.06
837.855	48.83
838.035	48.9
838.215	49.56
838.395	49.59
838.575	48.86
838.755	48.81
838.935	48.68
839.115	49.11
839.295	48.8
839.475	48.68
839.655	49.52
839.835	48.87
840.015	49.51
840.195	48.77
840.375	49.77
840.555	48.81
840.734	49.24
840.914	49.72
841.094	49.39
841.274	49.37
841.454	49.12
841.633	48.93
841.813	48.91
841.993	49.9
842.172	49.01
842.352	49.33
842.532	49.03
842.711	49.12
842.891	48.25
843.071	49.06
843.25	48.55
843.43	49.36
843.61	49.75
843.789	47.71
843.969	48.95
844.148	49.16
844.328	48.44
844.507	49.5
844.687	48.91
844.866	49.47
845.045	48.93
845.225	49.27
845.404	49.66
845.584	49.4
845.763	50.16
845.942	48.62
846.122	48.99
846.301	49.28
846.48	49.33
846.66	49.74
846.839	48.69
847.018	49.15
847.197	49.1
847.377	49.81
847.556	48.95
847.735	49.58
847.914	49.91
848.093	49.49
848.272	49.24
848.452	48.85
848.631	49.07
848.81	49.39
848.989	49.63
849.168	49.18
849.347	49.15
849.526	49.1
849.705	48.93
849.884	49.38
850.063	49.18
850.242	49.44
850.421	49.25
850.6	49.44
850.778	48.98
850.957	48.93
851.136	49.68
851.315	49.19
851.494	49.66
851.673	49.19
851.851	48.71
852.03	49.61
852.209	49.63
852.388	50.19
852.566	49.64
852.745	49.87
852.924	49.2
853.102	49.4
853.281	49.35
853.46	49.51
853.638	48.76
853.817	49.63
853.996	49.33
854.174	50.38
854.353	48.94
854.531	49.59
854.71	49.14
854.888	48.54
855.067	49.34
855.245	49
855.424	48.26
855.602	49.2
855.78	48.71
855.959	49.68
856.137	48.87
856.316	50.1
856.494	48.87
856.672	49.52
856.851	48.82
857.029	49.58
857.207	48.79
857.385	48.82
857.564	48.72
857.742	49.13
857.92	48.89
858.098	49.06
858.277	50.38
858.455	49.22
858.633	49.26
858.811	49.66
858.989	49.87
859.167	49.67
859.345	48.49
859.523	49.79
859.701	48.69
859.879	49.8
860.057	49.06
860.235	49.87
860.413	48.89
860.591	48.79
860.769	48.62
860.947	49.26
861.125	50.51
861.303	49.28
861.481	50.08
861.659	49.7
861.836	49.75
862.014	50.33
862.192	49.14
862.37	50.04
862.548	49.85
862.725	48.92
862.903	49.37
863.081	48.85
863.259	48.81
863.436	49.15
863.614	50.18
863.792	48.93
863.969	49.17
864.147	49.09
864.324	49.89
864.502	48.87
864.68	49.57
864.857	49.44
865.035	50.31
865.212	49.57
865.39	49.69
865.567	49.95
865.745	49.66
865.922	49.27
866.099	49.51
866.277	49.94
866.454	49.2
866.632	48.65
866.809	49.47
866.986	49.34
867.164	48.75
867.341	49.44
867.518	48.96
867.695	49.44
867.873	50.03
868.05	48.94
868.227	49.43
868.404	49.14
868.582	50.95
868.759	49.36
868.936	50.39
869.113	49.18
869.29	48.64
869.467	48.41
869.644	50.02
869.821	49.34
869.998	50.05
870.176	49.43
870.353	49.95
870.53	48.5
870.707	48.4
870.883	48.94
871.06	49.04
871.237	49.14
871.414	50.08
871.591	49.4
871.768	48.59
871.945	48.81
872.122	50.33
872.299	49.42
872.475	48.64
872.652	49.82
872.829	50.62
873.006	49.28
873.182	48.32
873.359	48.96
873.536	48.98
873.713	49.55
873.889	47.92
874.066	48.89
874.243	49.08
874.419	49.82
874.596	49.9
874.772	49.48
874.949	50.31
875.126	49.61
875.302	49.29
875.479	49.44
875.655	49.81
875.832	51.82
876.008	50.36
876.184	50.64
876.361	49.09
876.537	48.89
876.714	50.68
876.89	51.1
877.067	49.78
877.243	49.6
877.419	50.45
877.595	50.08
877.772	50.63
877.948	50.06
878.124	50.32
878.301	48.93
878.477	49.21
878.653	49.31
878.829	49.61
879.005	49.15
879.182	50.14
879.358	48.48
879.534	48.66
879.71	48.82
879.886	49.39
880.062	48.84
880.238	50.13
880.414	49.17
880.59	50.1
880.766	50.42
880.942	49.26
881.118	50.35
881.294	50.78
881.47	49.41
881.646	48.73
881.822	48.82
881.998	49.19
882.174	48.69
882.35	50.47
882.525	49.25
882.701	49.67
882.877	49.78
883.053	50.26
883.229	48.88
883.404	49.25
883.58	48.17
883.756	50.82
883.931	49.76
884.107	49.78
884.283	49.81
884.458	49.62
884.634	49.29
884.81	50.84
884.985	49.61
885.161	48.48
885.336	49.89
885.512	49.52
885.687	49.1
885.863	50.12
886.038	50.11
886.214	48.53
886.389	49.81
886.565	49.91
886.74	49.21
886.916	49.4
887.091	50.42
887.266	50.41
887.442	50.84
887.617	49.5
887.792	49.81
887.968	49.49
888.143	49.28
888.318	49.24
888.493	48.64
888.669	50.41
888.844	50.71
889.019	49.6
889.194	50.28
889.369	49.23
889.545	51.47
889.72	49.97
889.895	50.69
890.07	49.28
890.245	49.16
890.42	49.55
890.595	50.95
890.77	49.55
890.945	49.58
891.12	50.42
891.295	49.59
891.47	49.38
891.645	49.72
891.82	49.81
891.995	50.76
892.17	49.93
892.345	50.38
892.519	49.76
892.694	50.54
892.869	48.79
893.044	49.22
893.219	50.01
893.394	50.21
893.568	51.31
893.743	51.01
893.918	50.27
894.092	49.72
894.267	48.56
894.442	50.84
894.616	49.52
894.791	50.3
894.966	49.78
895.14	49.89
895.315	49.86
895.489	49.97
895.664	50.26
895.838	50.27
896.013	49.52
896.187	49.89
896.362	50.74
896.536	49.53
896.711	50.49
896.885	50.18
897.06	48.55
897.234	50.72
897.408	49.68
897.583	50.62
897.757	50.58
897.931	50.57
898.106	49.51
898.28	49.46
898.454	50.32
898.629	49.96
898.803	48.71
898.977	50.1
899.151	50.45
899.325	50.81
899.5	49.4
899.674	49.67
899.848	49.58
900.022	50.84
900.196	49.84
900.37	51.21
900.544	50.45
900.718	49.66
900.892	51.09
901.066	50.46
901.24	49.99
901.414	49.41
901.588	49.01
901.762	50.04
901.936	50.18
902.11	49.57
902.284	49.82
902.458	48.82
902.632	50.91
902.805	49.6
902.979	48.47
903.153	49.42
903.327	50.16
903.501	49.3
903.674	49.29
903.848	49.91
904.022	49.95
904.195	49.28
904.369	49.41
904.543	50.13
904.716	49.54
904.89	50.27
905.064	50.86
905.237	48.6
905.411	50.52
905.584	51.49
905.758	49.7
905.931	49.26
906.105	51.74
906.278	50.6
906.452	50.67
906.625	50.48
906.799	50.06
906.972	48.58
907.146	49.66
907.319	49.69
907.492	48.32
907.666	49.03
907.839	50.51
908.012	49.22
908.186	49.88
908.359	50
908.532	50.11
908.705	50.12
908.879	49.75
909.052	49.94
909.225	50.07
909.398	49.91
909.571	51.12
909.745	49.51
909.918	50.41
910.091	50.45
910.264	49.78
910.437	50.15
910.61	49.64
910.783	50.52
910.956	50.26
911.129	49.75
911.302	50.06
911.475	50.36
911.648	50.88
911.821	50.53
911.994	50.25
912.167	49.2
912.34	50.86
912.513	48.83
912.685	50.23
912.858	49.92
913.031	49.91
913.204	49.87
913.377	50.64
913.549	49.48
913.722	50.46
913.895	51.41
914.068	50.96
914.24	50.68
914.413	50.09
914.586	50.17
914.758	50.3
914.931	49.77
915.103	49.61
915.276	49.69
915.449	49.58
915.621	49.35
915.794	50.09
915.966	50.34
916.139	51.44
916.311	50.52
916.484	50.05
916.656	49.46
916.829	49.97
917.001	50.79
917.173	50.22
917.346	49.04
917.518	51.13
917.69	50.76
917.863	50.53
918.035	49.46
918.207	49.43
918.38	50.44
918.552	49.09
918.724	49.83
918.896	50.87
919.069	51.22
919.241	49.63
919.413	48.13
919.585	51.72
919.757	50.34
919.929	50.26
920.101	48.06
920.274	49.19
920.446	50.55
920.618	50.27
920.79	50.13
920.962	49.9
921.134	49.93
921.306	48.85
921.478	50.17
921.65	50.38
921.821	49.88
921.993	51.07
922.165	49.92
922.337	51.7
922.509	49.73
922.681	49.59
922.853	48.1
923.024	50.53
923.196	50.47
923.368	49.13
923.54	49.2
923.712	49.84
923.883	49.39
924.055	50.2
924.227	48.69
924.398	50.75
924.57	50.7
924.742	51.16
924.913	51.9
925.085	51.6
925.256	50.27
925.428	50.86
925.599	50.04
925.771	49.6
925.943	49.33
926.114	50.9
926.285	49.67
926.457	49.42
926.628	51.14
926.8	49.95
926.971	47.95
927.143	51.85
927.314	50.25
927.485	49.23
927.657	49.99
927.828	50.27
927.999	49.29
928.171	51.07
928.342	50.35
928.513	49.19
928.684	47.68
928.856	48
929.027	49.84
929.198	50.92
929.369	49.68
929.54	49.5
929.711	50.64
929.882	49.58
930.054	51.26
930.225	50.06
930.396	50.32
930.567	50.36
930.738	49.81
930.909	49.26
931.08	50.47
931.251	47.49
931.422	51.41
931.593	50.53
931.763	51.7
931.934	50.27
932.105	51.26
932.276	48.67
932.447	47.82
932.618	51.94
932.789	47.89
932.959	50.28
933.13	49.44
933.301	50.93
933.472	49.94
933.642	50.58
933.813	50.35
933.984	49.97
934.154	52.53
934.325	49.91
934.496	49.73
934.666	49.35
934.837	50.79
935.008	51.15
935.178	51.6
935.349	51.47
935.519	50.39
935.69	50.23
935.86	52.05
936.031	49.44
936.201	50.06
936.372	50.16
936.542	50.02
936.712	49.03
936.883	50.04
937.053	49.23
937.224	50.61
937.394	49.86
937.564	50.34
937.735	49.31
937.905	50.93
938.075	50.33
938.245	50.78
938.416	47.59
938.586	48.26
938.756	50.1
938.926	46.59
939.096	48.65
939.267	50.99
939.437	47.25
939.607	49.64
939.777	53.33
939.947	54.47
940.117	49.46
940.287	47.91
940.457	45.85
940.627	49.94
940.797	49.23
940.967	50.79
941.137	50.91
941.307	48.52
941.477	49.78
941.647	50.28
941.817	50.08
941.986	49.13
942.156	44.11
942.326	53.08
942.496	47.21
942.666	53.06
942.836	46.57
943.005	49
943.175	53.53
943.345	47.61
943.514	47.52
943.684	49.3
943.854	49.62
944.024	51.58
944.193	49.79
944.363	48.18
944.532	53.53
944.702	47.52
944.872	49.15
945.041	51.07
945.211	50.95
945.38	46.81
945.55	50.95
945.719	49.87
945.889	50.27
946.058	48.66
946.227	49.86
946.397	50.59
946.566	52.63
946.736	50.21
946.905	51.59
947.074	47.23
947.244	51.27
947.413	50.18
947.582	47.08
947.752	51.97
947.921	46.59
948.09	48.94
948.259	48.36
948.428	47.16
948.598	54.4
948.767	54.17
948.936	52.58
949.105	48.73
949.274	47.7
949.443	48.6
949.612	50.55
949.781	47.17
949.95	45.34
950.119	50.12
950.288	50.01
950.457	47.32
950.626	48.13
950.795	48.32
950.964	45.55
951.133	47.6
951.302	52.39
951.471	49.08
951.64	49.48
951.809	47.83
951.978	50.64
952.146	50.28
952.315	51.89
952.484	49.95
952.653	45.79
952.821	47.83
952.99	50.55
953.159	48.52
953.328	49.85
953.496	50.96
953.665	49.36
953.834	48.83
954.002	47.56
954.171	50.57
954.339	48.02
954.508	47.76
954.676	48.85
954.845	49.72
955.014	48.52
955.182	49.45
955.35	49.79
955.519	49.24
955.687	49.42
955.856	47.12
956.024	48.21
956.193	47.92
956.361	51.02
956.529	46.61
956.698	50.24
956.866	51.63
957.034	51.56
957.203	49.42
957.371	49.63
957.539	48.65
957.707	47.36
957.876	49.61
958.044	50.31
958.212	52.27
958.38	50.14
958.548	51.06
958.716	49.46
958.884	47.45
959.053	48.69
959.221	50.74
959.389	49.35
959.557	46.85
959.725	51.54
959.893	44.95
960.061	48.67
960.229	47.18
960.397	49.34
960.565	48.19
960.733	49.5
960.9	46.9
961.068	47.18
961.236	50.86
961.404	47.57
961.572	49.02
961.74	50.5
961.907	49.06
962.075	46.18
962.243	49.08
962.411	46.54
962.578	46.31
962.746	49.01
962.914	47.16
963.081	47.61
963.249	49.85
963.417	49.24
963.584	52.36
963.752	51.42
963.92	46.49
964.087	46.93
964.255	50.5
964.422	51.66
964.59	46.73
964.757	49.19
964.925	49.67
965.092	46.96
965.26	48.02
965.427	47.8
965.594	48.68
965.762	48.35
965.929	48.5
966.096	46.89
966.264	47.8
966.431	48.79
966.598	48.32
966.766	46.47
966.933	48.74
967.1	49.45
967.267	50.3
967.435	49.8
967.602	49.71
967.769	47.01
967.936	49.59
968.103	49.86
968.27	48.7
968.438	49.31
968.605	50.13
968.772	52.83
968.939	49.95
969.106	50.5
969.273	50.04
969.44	51.37
969.607	51.12
969.774	49.34
969.941	48.33
970.108	48.35
970.275	46.72
970.441	51.42
970.608	48.11
970.775	50.42
970.942	46.8
971.109	49.42
971.276	44.58
971.442	50.7
971.609	52.24
971.776	52.28
971.943	44.62
972.109	47.6
972.276	50.08
972.443	51.8
972.609	49.08
972.776	51.7
972.943	46.78
973.109	52.22
973.276	46.57
973.442	50.11
973.609	49.15
973.775	48.23
973.942	48.04
974.109	49.4
974.275	46.23
974.441	48.76
974.608	48.61
974.774	52.42
974.941	46.36
975.107	46.75
975.274	49.63
975.44	49.4
975.606	45.96
975.773	50.34
975.939	50.19
976.105	51.93
976.271	44.76
976.438	46.85
976.604	46.34
976.77	49.94
976.936	46.75
977.102	47.71
977.269	51.87
977.435	48.61
977.601	46.34
977.767	51.59
977.933	47.83
978.099	49.5
978.265	48.69
978.431	49.58
978.597	48.63
978.763	47.31
978.929	55.62
979.095	52.85
979.261	47.85
979.427	48.77
979.593	47.62
979.759	48.51
979.925	43.68
980.091	47.6
980.257	47.94
980.422	51.07
980.588	50.1
980.754	49.51
980.92	44.94
981.086	51.66
981.251	50.43
981.417	45.47
981.583	46.7
981.748	51.93
981.914	48.57
982.08	48.47
982.245	43.79
982.411	47.64
982.577	49.84
982.742	48.89
982.908	48.27
983.073	50.19
983.239	49.4
983.404	54.31
983.57	52.98
983.735	46.88
983.901	49.45
984.066	50.01
984.232	53.76
984.397	49.23
984.562	48.53
984.728	50.74
984.893	52.59
985.058	47.56
985.224	46.44
985.389	44.8
985.554	49.6
985.719	43.59
985.885	44.72
986.05	49.52
986.215	50.01
986.38	47.06
986.546	47.59
986.711	44.54
986.876	46.7
987.041	51.03
987.206	48.88
987.371	49.76
987.536	45.85
987.701	50.57
987.866	50.55
988.031	46.85
988.196	44.16
988.361	47.19
988.526	52.66
988.691	47.42
988.856	52.16
989.021	50.33
989.186	49.64
989.351	49.22
989.516	47.37
989.68	44.18
989.845	49.29
990.01	50.32
990.175	50.13
990.339	42.28
990.504	50.18
990.669	46.96
990.834	50.08
990.998	50.79
991.163	47.16
991.328	53.62
991.492	53.83
991.657	50.14
991.822	47.54
991.986	50.25
992.151	49.42
992.315	46.88
992.48	49.44
992.644	48.55
992.809	51.75
992.973	49.63
993.138	47.54
993.302	53.09
993.467	45.61
993.631	53.04
993.795	49.2
993.96	54.13
994.124	54.71
994.288	43.35
994.453	49.21
994.617	48.25
994.781	53.05
994.945	44.32
995.11	51.25
995.274	44.08
995.438	47.41
995.602	50.39
995.767	49.94
995.931	44.64
996.095	48.96
996.259	39.2
996.423	50.23
996.587	41.17
996.751	53.28
996.915	52.47
997.079	51.19
997.243	42.26
997.407	50.19
997.571	49.5
997.735	58.6
997.899	46.1
998.063	47.16
998.227	48.17
998.391	46.53
998.555	51.27
998.719	50.34
998.882	44.63
999.046	45.61
999.21	39.09
999.374	48.56
999.538	53.53
999.701	53.57
999.865	51.26
1000.029	54.45
1000.192	40.58
1000.356	47.76
1000.52	53.03
1000.683	67.03
1000.847	39.8
1001.011	45.81
1001.174	43.05
1001.338	47.78
1001.501	53.97
1001.665	40.73
1001.828	46.96
1001.992	50.5
1002.155	52.08
1002.319	47.49
1002.482	51.08
1002.646	51.64
1002.809	36.73
1002.972	49.44
1003.136	47.23
1003.299	50.03
1003.462	54.09
1003.626	46.74
1003.789	58.75
1003.952	48.3
1004.116	50.72
1004.279	45.82
1004.442	50.37
1004.605	46.86
1004.768	51.48
1004.932	45.89
1005.095	45.55
1005.258	52.81
1005.421	54.96
1005.584	50.26
1005.747	48.54
1005.91	43.08
1006.073	44.65
1006.236	50.34
1006.399	48.28
1006.562	49.5
1006.725	41.43
1006.888	57.69
1007.051	35.18
1007.214	48.2
1007.377	52.41
1007.54	55.57
1007.703	53.89
1007.866	56.12
1008.028	46.49
1008.191	46.38
1008.354	61.54
1008.517	57.35
1008.679	60.86
1008.842	58
1009.005	51.89
1009.168	61.52
1009.33	44.35
1009.493	43.8
1009.656	61.8
1009.818	71.52
1009.981	47.1
1010.144	47.22
1010.306	38.86
1010.469	56.59
1010.631	51.56
1010.794	42.79
1010.956	37.98
1011.119	53.72
1011.281	42.17
1011.444	42.28
1011.606	62.04
1011.768	54.07
1011.931	65.9
1012.093	50.55
1012.256	28.6
1012.418	47.69
1012.58	59.42
1012.743	53.51
1012.905	38
1013.067	62.88
1013.229	46.89
1013.392	46.6
1013.554	38.44
1013.716	58.95
1013.878	51.9
1014.04	52.53
1014.203	49.17
1014.365	43.95
1014.527	55.1
1014.689	68.69
1014.851	60.96
1015.013	47.77
1015.175	41.92
1015.337	62.21
1015.499	72.97
1015.661	40.1
1015.823	53.3
1015.985	50.51
1016.147	57.79
1016.309	41.74
1016.471	37.97
1016.633	41.9
1016.794	55.03
1016.956	61.7
1017.118	51.3
1017.28	53.72
1017.442	34.89
1017.603	73.34
1017.765	31.36
1017.927	67.59
1018.089	63.03
1018.25	69.77
1018.412	31.74
1018.574	21.26
1018.735	49.55
1018.897	44.68
1019.059	56.25
1019.22	41.15
1019.382	38.39
1019.543	63.57
1019.705	46.44
1019.866	53.47
1020.028	78.77
1020.189	47.83
1020.351	56.08
1020.512	39.3
1020.674	29.74
1020.835	15
1020.996	84.25
1021.158	34.61
1021.319	58.94
1021.481	33.15
1021.642	44.42
1021.803	54.03
1021.964	38.08
1022.126	52.3
1022.287	70.01
1022.448	51.74
1022.609	24.11
1022.771	-10.83
1022.932	47.02
1023.093	91.13
1023.254	36.78
1023.415	26.08
1023.576	51.87
1023.737	26.25
1023.898	67.43
1024.059	47.44
1024.22	49.44
1024.381	12.86
1024.542	51.26
1024.703	46.16
1024.864	51.18
1025.025	79.64
1025.186	6.11
1025.347	47.93
1025.508	27.52
1025.669	28.9
1025.83	43.9
1025.991	73.54
1026.151	52.08
1026.312	43.7
1026.473	35.45
1026.634	54.3
1026.795	44.69
1026.955	126.73
1027.116	20.54
1027.277	24
1027.437	73.25
1027.598	47.14
1027.759	39.39
1027.919	7.65
1028.08	52.38
1028.24	21.99
1028.401	48.52
1028.561	57.79
1028.722	53.65
1028.883	55.51
1029.043	51.35
1029.203	92.07
1029.364	12.73
1029.524	98.54
1029.685	52.65
1029.845	53.85
1030.006	49.12
1030.166	21.8
1030.326	33.29
1030.487	25.65
1030.647	35.15
1030.807	55.77
1030.967	48.4
1031.128	-0.41
1031.288	77.9
1031.448	22.08
1031.608	53.55
1031.769	40.96
1031.929	83.5
1032.089	55.63
1032.249	68.87
1032.409	88.82
1032.569	66.2
1032.729	55.8
1032.889	49.52
1033.049	38.12
1033.209	23
1033.369	29.13
1033.529	142.5
1033.689	36.72
1033.849	65.91
1034.009	86.82
1034.169	-14
1034.329	24.7
1034.489	128
1034.649	71.85
1034.809	51.11
1034.968	-19.51
1035.128	126.28
1035.288	32.32
1035.448	65.69
1035.607	-101.46
1035.767	60.72
1035.927	38.99
1036.087	63.72
1036.246	91.71
1036.406	35.16
1036.566	-14.64
1036.725	45.97
1036.885	70.62
1037.044	122.82
1037.204	0.9
1037.363	74.73
1037.523	771.76
1037.683	45.13
1037.842	36.36
1038.001	-214.36
1038.161	155.12
1038.32	126.07
1038.48	205.19
1038.639	59.04
1038.799	110.14
1038.958	27.63
1039.117	88.54
1039.277	-21.05
1039.436	37.8
1039.595	197.24
1039.755	36.99
1039.914	33.25
1040.073	9.89
1040.232	655.42
1040.391	122.24
1040.551	107.38
1040.71	106.39
1040.869	60.24
1041.028	120.62
1041.187	461.18
1041.346	461.18
1041.505	461.18
